Wavelength(nm)  Intensity
690.491451	2427.000000
690.666149	2428.000000
690.840814	2427.000000
691.015445	2428.000000
691.190043	2429.000000
691.364607	2427.000000
691.539138	2426.000000
691.713635	2424.000000
691.888099	2427.000000
692.062529	2426.000000
692.236926	2428.000000
692.411289	2425.000000
692.585619	2429.000000
692.759915	2427.000000
692.934178	2427.000000
693.108407	2429.000000
693.282602	2429.000000
693.456764	2432.000000
693.630893	2429.000000
693.804988	2429.000000
693.979049	2432.000000
694.153077	2429.000000
694.327072	2428.000000
694.501032	2431.000000
694.674960	2429.000000
694.848854	2429.000000
695.022714	2430.000000
695.196540	2430.000000
695.370334	2427.000000
695.544093	2430.000000
695.717819	2431.000000
695.891512	2429.000000
696.065171	2430.000000
696.238796	2430.000000
696.412388	2432.000000
696.585946	2431.000000
696.759471	2429.000000
696.932962	2431.000000
697.106420	2427.000000
697.279844	2431.000000
697.453234	2432.000000
697.626591	2431.000000
697.799914	2429.000000
697.973204	2430.000000
698.146460	2432.000000
698.319683	2430.000000
698.492872	2434.000000
698.666027	2432.000000
698.839149	2434.000000
699.012237	2430.000000
699.185292	2433.000000
699.358313	2433.000000
699.531300	2433.000000
699.704254	2435.000000
699.877174	2433.000000
700.050061	2434.000000
700.222914	2431.000000
700.395733	2435.000000
700.568519	2433.000000
700.741272	2432.000000
700.913990	2436.000000
701.086675	2433.000000
701.259327	2435.000000
701.431944	2434.000000
701.604529	2435.000000
701.777079	2435.000000
701.949596	2437.000000
702.122080	2437.000000
702.294529	2437.000000
702.466945	2438.000000
702.639328	2439.000000
702.811677	2438.000000
702.983992	2437.000000
703.156273	2436.000000
703.328521	2438.000000
703.500736	2441.000000
703.672916	2440.000000
703.845063	2441.000000
704.017177	2442.000000
704.189257	2441.000000
704.361303	2443.000000
704.533315	2440.000000
704.705294	2444.000000
704.877239	2442.000000
705.049151	2444.000000
705.221028	2445.000000
705.392873	2447.000000
705.564683	2445.000000
705.736460	2445.000000
705.908203	2447.000000
706.079913	2449.000000
706.251589	2449.000000
706.423231	2454.000000
706.594839	2454.000000
706.766414	2452.000000
706.937955	2455.000000
707.109463	2457.000000
707.280937	2452.000000
707.452377	2452.000000
707.623783	2454.000000
707.795156	2451.000000
707.966495	2452.000000
708.137801	2457.000000
708.309073	2454.000000
708.480311	2454.000000
708.651515	2454.000000
708.822686	2462.000000
708.993823	2466.000000
709.164926	2463.000000
709.335995	2459.000000
709.507031	2459.000000
709.678034	2457.000000
709.849002	2455.000000
710.019937	2448.000000
710.190838	2455.000000
710.361705	2457.000000
710.532539	2456.000000
710.703339	2452.000000
710.874105	2457.000000
711.044837	2458.000000
711.215536	2457.000000
711.386201	2460.000000
711.556832	2459.000000
711.727430	2463.000000
711.897994	2459.000000
712.068524	2463.000000
712.239020	2464.000000
712.409483	2461.000000
712.579912	2465.000000
712.750307	2459.000000
712.920669	2461.000000
713.090996	2460.000000
713.261290	2459.000000
713.431550	2460.000000
713.601777	2462.000000
713.771970	2458.000000
713.942129	2460.000000
714.112254	2461.000000
714.282345	2461.000000
714.452403	2459.000000
714.622427	2463.000000
714.792417	2461.000000
714.962373	2462.000000
715.132296	2460.000000
715.302185	2465.000000
715.472040	2462.000000
715.641861	2465.000000
715.811649	2466.000000
715.981403	2469.000000
716.151123	2470.000000
716.320809	2468.000000
716.490462	2472.000000
716.660080	2473.000000
716.829665	2475.000000
716.999216	2477.000000
717.168734	2473.000000
717.338217	2477.000000
717.507667	2474.000000
717.677083	2479.000000
717.846465	2476.000000
718.015814	2484.000000
718.185128	2476.000000
718.354409	2483.000000
718.523656	2481.000000
718.692869	2480.000000
718.862048	2484.000000
719.031194	2483.000000
719.200306	2480.000000
719.369384	2477.000000
719.538428	2480.000000
719.707438	2480.000000
719.876415	2479.000000
720.045357	2477.000000
720.214266	2477.000000
720.383141	2481.000000
720.551983	2477.000000
720.720790	2479.000000
720.889563	2481.000000
721.058303	2479.000000
721.227009	2478.000000
721.395681	2477.000000
721.564319	2476.000000
721.732924	2482.000000
721.901494	2479.000000
722.070031	2478.000000
722.238534	2480.000000
722.407003	2479.000000
722.575438	2482.000000
722.743839	2479.000000
722.912207	2478.000000
723.080541	2487.000000
723.248840	2488.000000
723.417106	2485.000000
723.585338	2482.000000
723.753536	2488.000000
723.921701	2486.000000
724.089831	2488.000000
724.257928	2489.000000
724.425991	2487.000000
724.594019	2488.000000
724.762014	2492.000000
724.929976	2488.000000
725.097903	2491.000000
725.265796	2494.000000
725.433656	2492.000000
725.601481	2489.000000
725.769273	2496.000000
725.937031	2495.000000
726.104755	2499.000000
726.272445	2500.000000
726.440101	2500.000000
726.607723	2499.000000
726.775312	2502.000000
726.942866	2501.000000
727.110387	2505.000000
727.277874	2502.000000
727.445326	2505.000000
727.612745	2510.000000
727.780130	2510.000000
727.947481	2507.000000
728.114798	2510.000000
728.282082	2511.000000
728.449331	2508.000000
728.616547	2509.000000
728.783728	2511.000000
728.950876	2505.000000
729.117989	2515.000000
729.285069	2513.000000
729.452115	2519.000000
729.619127	2517.000000
729.786105	2515.000000
729.953049	2516.000000
730.119959	2519.000000
730.286835	2519.000000
730.453677	2517.000000
730.620486	2519.000000
730.787260	2519.000000
730.954000	2518.000000
731.120707	2518.000000
731.287379	2516.000000
731.454018	2513.000000
731.620623	2523.000000
731.787193	2520.000000
731.953730	2511.000000
732.120233	2512.000000
732.286702	2518.000000
732.453137	2521.000000
732.619537	2518.000000
732.785904	2517.000000
732.952237	2514.000000
733.118536	2513.000000
733.284801	2515.000000
733.451033	2516.000000
733.617230	2510.000000
733.783393	2513.000000
733.949522	2509.000000
734.115617	2514.000000
734.281678	2510.000000
734.447706	2513.000000
734.613699	2510.000000
734.779658	2511.000000
734.945583	2508.000000
735.111475	2512.000000
735.277332	2507.000000
735.443155	2503.000000
735.608944	2506.000000
735.774700	2508.000000
735.940421	2506.000000
736.106108	2505.000000
736.271762	2501.000000
736.437381	2502.000000
736.602966	2504.000000
736.768518	2499.000000
736.934035	2495.000000
737.099518	2505.000000
737.264967	2498.000000
737.430383	2497.000000
737.595764	2499.000000
737.761111	2501.000000
737.926424	2494.000000
738.091703	2496.000000
738.256949	2495.000000
738.422160	2498.000000
738.587337	2496.000000
738.752480	2500.000000
738.917589	2491.000000
739.082664	2492.000000
739.247705	2491.000000
739.412712	2489.000000
739.577685	2490.000000
739.742623	2492.000000
739.907528	2489.000000
740.072399	2495.000000
740.237236	2489.000000
740.402038	2491.000000
740.566807	2489.000000
740.731541	2493.000000
740.896242	2487.000000
741.060908	2487.000000
741.225541	2488.000000
741.390139	2489.000000
741.554703	2491.000000
741.719234	2487.000000
741.883730	2485.000000
742.048192	2484.000000
742.212620	2484.000000
742.377014	2487.000000
742.541374	2489.000000
742.705699	2486.000000
742.869991	2486.000000
743.034249	2486.000000
743.198472	2484.000000
743.362662	2485.000000
743.526817	2482.000000
743.690938	2484.000000
743.855025	2487.000000
744.019079	2481.000000
744.183098	2481.000000
744.347082	2483.000000
744.511033	2483.000000
744.674950	2484.000000
744.838833	2482.000000
745.002681	2487.000000
745.166496	2481.000000
745.330276	2482.000000
745.494022	2485.000000
745.657734	2480.000000
745.821412	2485.000000
745.985056	2483.000000
746.148666	2485.000000
746.312241	2481.000000
746.475783	2484.000000
746.639290	2481.000000
746.802764	2484.000000
746.966203	2481.000000
747.129608	2478.000000
747.292979	2477.000000
747.456316	2476.000000
747.619618	2478.000000
747.782887	2479.000000
747.946121	2481.000000
748.109321	2478.000000
748.272487	2481.000000
748.435619	2482.000000
748.598717	2480.000000
748.761781	2478.000000
748.924810	2477.000000
749.087806	2475.000000
749.250767	2479.000000
749.413694	2481.000000
749.576587	2478.000000
749.739446	2476.000000
749.902270	2477.000000
750.065061	2477.000000
750.227817	2478.000000
750.390539	2471.000000
750.553227	2478.000000
750.715881	2475.000000
750.878500	2475.000000
751.041086	2475.000000
751.203637	2476.000000
751.366154	2476.000000
751.528637	2479.000000
751.691086	2475.000000
751.853500	2475.000000
752.015881	2472.000000
752.178227	2470.000000
752.340539	2475.000000
752.502817	2475.000000
752.665060	2471.000000
752.827270	2467.000000
752.989445	2473.000000
753.151586	2475.000000
753.313693	2470.000000
753.475765	2470.000000
753.637804	2469.000000
753.799808	2475.000000
753.961778	2470.000000
754.123714	2473.000000
754.285616	2474.000000
754.447483	2471.000000
754.609316	2471.000000
754.771115	2468.000000
754.932880	2467.000000
755.094610	2475.000000
755.256307	2465.000000
755.417969	2471.000000
755.579597	2467.000000
755.741190	2468.000000
755.902750	2471.000000
756.064275	2468.000000
756.225766	2467.000000
756.387223	2466.000000
756.548645	2471.000000
756.710033	2467.000000
756.871387	2471.000000
757.032707	2468.000000
757.193993	2469.000000
757.355244	2471.000000
757.516461	2472.000000
757.677644	2473.000000
757.838792	2470.000000
757.999907	2468.000000
758.160987	2469.000000
758.322032	2464.000000
758.483044	2466.000000
758.644021	2468.000000
758.804964	2469.000000
758.965873	2468.000000
759.126747	2468.000000
759.287587	2465.000000
759.448393	2466.000000
759.609165	2465.000000
759.769902	2465.000000
759.930606	2467.000000
760.091274	2468.000000
760.251909	2466.000000
760.412509	2470.000000
760.573075	2468.000000
760.733607	2465.000000
760.894104	2467.000000
761.054567	2467.000000
761.214996	2463.000000
761.375391	2461.000000
761.535751	2466.000000
761.696077	2462.000000
761.856369	2464.000000
762.016626	2468.000000
762.176849	2462.000000
762.337038	2463.000000
762.497192	2464.000000
762.657312	2462.000000
762.817398	2460.000000
762.977450	2462.000000
763.137467	2464.000000
763.297450	2461.000000
763.457398	2463.000000
763.617313	2467.000000
763.777192	2464.000000
763.937038	2459.000000
764.096849	2466.000000
764.256626	2458.000000
764.416369	2462.000000
764.576077	2467.000000
764.735751	2462.000000
764.895391	2460.000000
765.054996	2459.000000
765.214567	2458.000000
765.374104	2462.000000
765.533606	2458.000000
765.693074	2457.000000
765.852508	2459.000000
766.011907	2462.000000
766.171272	2458.000000
766.330602	2457.000000
766.489898	2461.000000
766.649160	2459.000000
766.808388	2459.000000
766.967581	2458.000000
767.126740	2457.000000
767.285864	2457.000000
767.444954	2461.000000
767.604010	2458.000000
767.763031	2457.000000
767.922018	2459.000000
768.080971	2455.000000
768.239889	2455.000000
768.398773	2459.000000
768.557622	2453.000000
768.716437	2457.000000
768.875218	2460.000000
769.033964	2459.000000
769.192676	2456.000000
769.351354	2458.000000
769.509997	2455.000000
769.668605	2455.000000
769.827180	2457.000000
769.985720	2454.000000
770.144225	2456.000000
770.302696	2455.000000
770.461133	2454.000000
770.619536	2455.000000
770.777904	2461.000000
770.936237	2455.000000
771.094536	2455.000000
771.252801	2451.000000
771.411031	2457.000000
771.569227	2454.000000
771.727389	2453.000000
771.885516	2452.000000
772.043609	2453.000000
772.201667	2454.000000
772.359691	2457.000000
772.517680	2456.000000
772.675635	2454.000000
772.833556	2452.000000
772.991442	2451.000000
773.149293	2455.000000
773.307111	2452.000000
773.464893	2455.000000
773.622642	2455.000000
773.780356	2451.000000
773.938035	2452.000000
774.095680	2456.000000
774.253291	2451.000000
774.410867	2449.000000
774.568409	2456.000000
774.725916	2449.000000
774.883389	2453.000000
775.040827	2451.000000
775.198231	2452.000000
775.355601	2452.000000
775.512936	2451.000000
775.670236	2448.000000
775.827502	2454.000000
775.984734	2455.000000
776.141931	2454.000000
776.299093	2455.000000
776.456222	2449.000000
776.613315	2448.000000
776.770375	2450.000000
776.927399	2454.000000
777.084390	2450.000000
777.241345	2450.000000
777.398267	2449.000000
777.555154	2450.000000
777.712006	2451.000000
777.868824	2450.000000
778.025607	2449.000000
778.182356	2451.000000
778.339070	2449.000000
778.495750	2446.000000
778.652396	2448.000000
778.809007	2447.000000
778.965583	2445.000000
779.122125	2447.000000
779.278632	2449.000000
779.435105	2450.000000
779.591543	2448.000000
779.747947	2449.000000
779.904317	2446.000000
780.060651	2447.000000
780.216952	2453.000000
780.373218	2447.000000
780.529449	2450.000000
780.685646	2449.000000
780.841808	2446.000000
780.997935	2449.000000
781.154029	2446.000000
781.310087	2447.000000
781.466111	2450.000000
781.622101	2448.000000
781.778056	2445.000000
781.933976	2446.000000
782.089862	2446.000000
782.245714	2446.000000
782.401531	2448.000000
782.557313	2447.000000
782.713061	2447.000000
782.868774	2446.000000
783.024453	2445.000000
783.180097	2446.000000
783.335706	2447.000000
783.491281	2448.000000
783.646822	2447.000000
783.802328	2444.000000
783.957799	2449.000000
784.113236	2441.000000
784.268638	2446.000000
784.424006	2448.000000
784.579339	2451.000000
784.734637	2447.000000
784.889901	2445.000000
785.045131	2448.000000
785.200325	2447.000000
785.355486	2445.000000
785.510611	2444.000000
785.665702	2444.000000
785.820759	2447.000000
785.975781	2448.000000
786.130768	2447.000000
786.285721	2446.000000
786.440639	2444.000000
786.595522	2443.000000
786.750371	2445.000000
786.905185	2443.000000
787.059965	2446.000000
787.214710	2443.000000
787.369421	2443.000000
787.524096	2443.000000
787.678738	2444.000000
787.833344	2442.000000
787.987917	2443.000000
788.142454	2444.000000
788.296957	2443.000000
788.451425	2443.000000
788.605859	2441.000000
788.760258	2444.000000
788.914622	2444.000000
789.068952	2441.000000
789.223247	2441.000000
789.377507	2443.000000
789.531733	2443.000000
789.685924	2443.000000
789.840081	2443.000000
789.994203	2442.000000
790.148290	2443.000000
790.302343	2443.000000
790.456361	2444.000000
790.610344	2443.000000
790.764293	2443.000000
790.918207	2443.000000
791.072087	2444.000000
791.225931	2442.000000
791.379742	2442.000000
791.533517	2444.000000
791.687258	2445.000000
791.840964	2446.000000
791.994636	2444.000000
792.148272	2441.000000
792.301875	2443.000000
792.455442	2442.000000
792.608975	2442.000000
792.762473	2440.000000
792.915937	2444.000000
793.069366	2439.000000
793.222760	2442.000000
793.376119	2440.000000
793.529444	2445.000000
793.682734	2438.000000
793.835990	2441.000000
793.989210	2442.000000
794.142397	2441.000000
794.295548	2442.000000
794.448665	2441.000000
794.601747	2442.000000
794.754794	2443.000000
794.907807	2439.000000
795.060785	2438.000000
795.213728	2439.000000
795.366636	2442.000000
795.519510	2443.000000
795.672349	2440.000000
795.825154	2439.000000
795.977923	2441.000000
796.130658	2442.000000
796.283359	2444.000000
796.436024	2439.000000
796.588655	2439.000000
796.741251	2442.000000
796.893812	2444.000000
797.046339	2440.000000
797.198831	2440.000000
797.351288	2442.000000
797.503711	2439.000000
797.656099	2440.000000
797.808452	2439.000000
797.960770	2442.000000
798.113054	2439.000000
798.265302	2439.000000
798.417516	2438.000000
798.569696	2447.000000
798.721840	2441.000000
798.873950	2439.000000
799.026025	2442.000000
799.178066	2437.000000
799.330071	2441.000000
799.482042	2437.000000
799.633978	2440.000000
799.785880	2436.000000
799.937746	2441.000000
800.089578	2438.000000
800.241375	2439.000000
800.393138	2439.000000
800.544865	2441.000000
800.696558	2439.000000
800.848216	2441.000000
800.999839	2435.000000
801.151428	2441.000000
801.302981	2437.000000
801.454500	2439.000000
801.605984	2439.000000
801.757434	2439.000000
801.908848	2439.000000
802.060228	2440.000000
802.211573	2436.000000
802.362883	2436.000000
802.514159	2434.000000
802.665399	2439.000000
802.816605	2438.000000
802.967776	2439.000000
803.118912	2441.000000
803.270014	2439.000000
803.421081	2437.000000
803.572112	2439.000000
803.723109	2437.000000
803.874072	2438.000000
804.024999	2436.000000
804.175892	2438.000000
804.326749	2440.000000
804.477572	2440.000000
804.628361	2439.000000
804.779114	2439.000000
804.929832	2437.000000
805.080516	2436.000000
805.231165	2436.000000
805.381779	2437.000000
805.532358	2439.000000
805.682903	2436.000000
805.833412	2437.000000
805.983887	2436.000000
806.134327	2437.000000
806.284732	2437.000000
806.435102	2437.000000
806.585437	2438.000000
806.735738	2437.000000
806.886004	2434.000000
807.036235	2436.000000
807.186431	2437.000000
807.336592	2436.000000
807.486718	2437.000000
807.636809	2436.000000
807.786866	2436.000000
807.936888	2434.000000
808.086875	2433.000000
808.236827	2435.000000
808.386744	2439.000000
808.536626	2434.000000
808.686473	2439.000000
808.836286	2435.000000
808.986064	2437.000000
809.135806	2436.000000
809.285514	2439.000000
809.435187	2436.000000
809.584825	2435.000000
809.734429	2436.000000
809.883997	2436.000000
810.033531	2436.000000
810.183029	2439.000000
810.332493	2438.000000
810.481922	2437.000000
810.631316	2440.000000
810.780675	2435.000000
810.929999	2434.000000
811.079288	2438.000000
811.228543	2434.000000
811.377762	2439.000000
811.526947	2441.000000
811.676096	2441.000000
811.825211	2440.000000
811.974291	2439.000000
812.123336	2438.000000
812.272346	2439.000000
812.421321	2436.000000
812.570261	2434.000000
812.719166	2431.000000
812.868037	2435.000000
813.016872	2434.000000
813.165673	2435.000000
813.314438	2435.000000
813.463169	2436.000000
813.611865	2434.000000
813.760525	2434.000000
813.909151	2434.000000
814.057742	2436.000000
814.206298	2432.000000
814.354819	2436.000000
814.503305	2435.000000
814.651756	2435.000000
814.800173	2435.000000
814.948554	2436.000000
815.096900	2434.000000
815.245211	2433.000000
815.393488	2435.000000
815.541729	2436.000000
815.689936	2430.000000
815.838107	2433.000000
815.986244	2435.000000
816.134346	2436.000000
816.282412	2432.000000
816.430444	2436.000000
816.578441	2433.000000
816.726402	2436.000000
816.874329	2433.000000
817.022221	2434.000000
817.170078	2433.000000
817.317900	2435.000000
817.465687	2434.000000
817.613438	2433.000000
817.761155	2435.000000
817.908837	2434.000000
818.056484	2432.000000
818.204096	2434.000000
818.351673	2433.000000
818.499215	2431.000000
818.646722	2432.000000
818.794194	2433.000000
818.941631	2433.000000
819.089033	2432.000000
819.236400	2436.000000
819.383732	2435.000000
819.531029	2434.000000
819.678291	2434.000000
819.825518	2435.000000
819.972710	2434.000000
820.119867	2434.000000
820.266989	2434.000000
820.414076	2433.000000
820.561127	2433.000000
820.708144	2434.000000
820.855126	2431.000000
821.002073	2434.000000
821.148985	2435.000000
821.295862	2435.000000
821.442703	2435.000000
821.589510	2435.000000
821.736282	2433.000000
821.883018	2434.000000
822.029720	2432.000000
822.176386	2433.000000
822.323018	2432.000000
822.469614	2431.000000
822.616176	2434.000000
822.762702	2431.000000
822.909194	2432.000000
823.055650	2433.000000
823.202071	2433.000000
823.348457	2433.000000
823.494808	2431.000000
823.641124	2429.000000
823.787405	2431.000000
823.933651	2433.000000
824.079862	2432.000000
824.226038	2435.000000
824.372179	2432.000000
824.518285	2433.000000
824.664355	2433.000000
824.810391	2432.000000
824.956391	2435.000000
825.102356	2433.000000
825.248287	2433.000000
825.394182	2432.000000
825.540042	2432.000000
825.685867	2429.000000
825.831657	2434.000000
825.977412	2432.000000
826.123132	2431.000000
826.268816	2435.000000
826.414466	2433.000000
826.560081	2434.000000
826.705660	2435.000000
826.851204	2434.000000
826.996714	2433.000000
827.142188	2431.000000
827.287627	2432.000000
827.433031	2429.000000
827.578399	2432.000000
827.723733	2432.000000
827.869032	2432.000000
828.014295	2430.000000
828.159523	2433.000000
828.304716	2431.000000
828.449875	2434.000000
828.594998	2431.000000
828.740085	2434.000000
828.885138	2431.000000
829.030156	2434.000000
829.175138	2432.000000
829.320085	2433.000000
829.464998	2432.000000
829.609875	2432.000000
829.754717	2434.000000
829.899523	2431.000000
830.044295	2432.000000
830.189032	2436.000000
830.333733	2430.000000
830.478399	2432.000000
830.623030	2432.000000
830.767626	2434.000000
830.912187	2433.000000
831.056712	2432.000000
831.201203	2431.000000
831.345658	2432.000000
831.490078	2431.000000
831.634463	2433.000000
831.778813	2434.000000
831.923128	2431.000000
832.067407	2432.000000
832.211651	2434.000000
832.355861	2432.000000
832.500035	2431.000000
832.644173	2430.000000
832.788277	2430.000000
832.932345	2431.000000
833.076379	2435.000000
833.220377	2431.000000
833.364339	2431.000000
833.508267	2435.000000
833.652160	2432.000000
833.796017	2431.000000
833.939839	2431.000000
834.083626	2433.000000
834.227378	2432.000000
834.371094	2437.000000
834.514776	2432.000000
834.658422	2431.000000
834.802033	2429.000000
834.945608	2434.000000
835.089149	2433.000000
835.232654	2436.000000
835.376124	2433.000000
835.519559	2433.000000
835.662959	2432.000000
835.806323	2433.000000
835.949653	2431.000000
836.092947	2434.000000
836.236205	2433.000000
836.379429	2434.000000
836.522617	2432.000000
836.665770	2433.000000
836.808888	2435.000000
836.951971	2434.000000
837.095018	2433.000000
837.238030	2432.000000
837.381007	2432.000000
837.523949	2432.000000
837.666856	2432.000000
837.809727	2433.000000
837.952563	2433.000000
838.095364	2430.000000
838.238129	2429.000000
838.380859	2430.000000
838.523554	2431.000000
838.666214	2430.000000
838.808838	2432.000000
838.951428	2431.000000
839.093982	2434.000000
839.236500	2431.000000
839.378984	2432.000000
839.521432	2429.000000
839.663845	2434.000000
839.806222	2430.000000
839.948565	2432.000000
840.090872	2432.000000
840.233144	2433.000000
840.375380	2431.000000
840.517581	2434.000000
840.659747	2434.000000
840.801878	2436.000000
840.943973	2434.000000
841.086033	2435.000000
841.228058	2432.000000
841.370048	2434.000000
841.512002	2434.000000
841.653921	2431.000000
841.795805	2431.000000
841.937653	2432.000000
842.079466	2431.000000
842.221244	2435.000000
842.362986	2440.000000
842.504693	2438.000000
842.646365	2432.000000
842.788002	2434.000000
842.929603	2432.000000
843.071169	2433.000000
843.212700	2432.000000
843.354195	2433.000000
843.495655	2433.000000
843.637079	2433.000000
843.778469	2430.000000
843.919823	2434.000000
844.061141	2429.000000
844.202425	2429.000000
844.343673	2432.000000
844.484885	2433.000000
844.626063	2432.000000
844.767205	2434.000000
844.908311	2432.000000
845.049383	2431.000000
845.190419	2434.000000
845.331419	2433.000000
845.472385	2432.000000
845.613315	2434.000000
845.754209	2431.000000
845.895068	2430.000000
846.035892	2435.000000
846.176681	2435.000000
846.317434	2431.000000
846.458152	2433.000000
846.598834	2433.000000
846.739481	2432.000000
846.880093	2431.000000
847.020670	2432.000000
847.161211	2429.000000
847.301716	2432.000000
847.442187	2431.000000
847.582621	2430.000000
847.723021	2433.000000
847.863385	2433.000000
848.003714	2430.000000
848.144007	2433.000000
848.284265	2434.000000
848.424488	2432.000000
848.564675	2433.000000
848.704827	2432.000000
848.844943	2431.000000
848.985025	2434.000000
849.125070	2432.000000
849.265080	2431.000000
849.405055	2430.000000
849.544995	2429.000000
849.684899	2428.000000
849.824768	2432.000000
849.964601	2429.000000
850.104399	2430.000000
850.244161	2431.000000
850.383888	2430.000000
850.523580	2430.000000
850.663236	2433.000000
850.802857	2430.000000
850.942442	2432.000000
851.081992	2433.000000
851.221507	2430.000000
851.360986	2428.000000
851.500430	2418.000000
851.639838	2410.000000
851.779211	2414.000000
851.918548	2412.000000
852.057850	2427.000000
852.197117	2428.000000
852.336348	2428.000000
852.475543	2427.000000
852.614704	2428.000000
852.753828	2425.000000
852.892918	2431.000000
853.031971	2430.000000
853.170990	2432.000000
853.309973	2431.000000
853.448920	2431.000000
853.587832	2429.000000
853.726709	2413.000000
853.865550	2413.000000
854.004356	2411.000000
854.143126	2414.000000
